# C10H8O4 Density=1.4 Thickness=0.9 microns
# Photon Energy (eV), Transmission
    10.000      0.91449E-13
    29.980      0.83263E-19
    49.960      0.15524E-07
    69.940      0.66115E-04
    89.920      0.26370E-02
    109.90      0.19505E-01
    129.88      0.64441E-01
    149.86      0.13449    
    169.84      0.21707    
    189.82      0.31026    
    209.80      0.41343    
    229.78      0.50372    
    249.76      0.57758    
    269.74      0.64262    
    289.72      0.16135E-01
    309.70      0.28577E-01
    329.68      0.45435E-01
    349.66      0.66503E-01
    369.64      0.91267E-01
    389.62      0.12093    
    409.60      0.15475    
    429.58      0.19054    
    449.56      0.22741    
    469.54      0.26461    
    489.52      0.30168    
    509.50      0.33856    
    529.48      0.37432    
    549.46      0.17889    
    569.44      0.20716    
    589.42      0.23557    
    609.40      0.26401    
    629.38      0.29233    
    649.36      0.32094    
    669.34      0.34953    
    689.32      0.37564    
    709.30      0.40077    
    729.28      0.42703    
    749.26      0.45255    
    769.24      0.47709    
    789.22      0.50085    
    809.20      0.52378    
    829.18      0.54562    
    849.16      0.56632    
    869.14      0.58575    
    889.12      0.60406    
    909.10      0.62146    
    929.08      0.63810    
    949.06      0.65423    
    969.04      0.66963    
    989.02      0.68423    
    1009.0      0.69805    
    1029.0      0.71108    
    1049.0      0.72348    
    1068.9      0.73537    
    1088.9      0.74663    
    1108.9      0.75730    
    1128.9      0.76742    
    1148.9      0.77700    
    1168.8      0.78609    
    1188.8      0.79472    
    1208.8      0.80290    
    1228.8      0.81067    
    1248.8      0.81809    
    1268.7      0.82517    
    1288.7      0.83195    
    1308.7      0.83839    
    1328.7      0.84452    
    1348.7      0.85036    
    1368.6      0.85591    
    1388.6      0.86119    
    1408.6      0.86623    
    1428.6      0.87103    
    1448.6      0.87560    
    1468.5      0.87997    
    1488.5      0.88416    
    1508.5      0.88818    
    1528.5      0.89203    
    1548.5      0.89571    
    1568.4      0.89922    
    1588.4      0.90259    
    1608.4      0.90580    
    1628.4      0.90888    
    1648.4      0.91183    
    1668.3      0.91465    
    1688.3      0.91735    
    1708.3      0.91995    
    1728.3      0.92243    
    1748.3      0.92483    
    1768.2      0.92714    
    1788.2      0.92936    
    1808.2      0.93149    
    1828.2      0.93354    
    1848.2      0.93550    
    1868.1      0.93739    
    1888.1      0.93921    
    1908.1      0.94096    
    1928.1      0.94264    
    1948.1      0.94426    
    1968.0      0.94581    
    1988.0      0.94732    
    2008.0      0.94875    
    2028.0      0.95014    
    2048.0      0.95149    
    2067.9      0.95279    
    2087.9      0.95405    
    2107.9      0.95526    
    2127.9      0.95643    
    2147.9      0.95757    
    2167.8      0.95866    
    2187.8      0.95972    
    2207.8      0.96074    
    2227.8      0.96173    
    2247.8      0.96268    
    2267.7      0.96361    
    2287.7      0.96450    
    2307.7      0.96537    
    2327.7      0.96621    
    2347.7      0.96702    
    2367.6      0.96781    
    2387.6      0.96857    
    2407.6      0.96931    
    2427.6      0.97003    
    2447.6      0.97072    
    2467.5      0.97139    
    2487.5      0.97205    
    2507.5      0.97268    
    2527.5      0.97330    
    2547.5      0.97389    
    2567.4      0.97447    
    2587.4      0.97504    
    2607.4      0.97558    
    2627.4      0.97612    
    2647.4      0.97663    
    2667.3      0.97713    
    2687.3      0.97762    
    2707.3      0.97810    
    2727.3      0.97856    
    2747.3      0.97901    
    2767.2      0.97944    
    2787.2      0.97987    
    2807.2      0.98028    
    2827.2      0.98068    
    2847.2      0.98107    
    2867.1      0.98145    
    2887.1      0.98182    
    2907.1      0.98219    
    2927.1      0.98254    
    2947.1      0.98288    
    2967.0      0.98321    
    2987.0      0.98354    
    3007.0      0.98386    
    3027.0      0.98417    
    3047.0      0.98447    
    3066.9      0.98476    
    3086.9      0.98505    
    3106.9      0.98533    
    3126.9      0.98560    
    3146.9      0.98587    
    3166.8      0.98613    
    3186.8      0.98639    
    3206.8      0.98663    
    3226.8      0.98688    
    3246.8      0.98711    
    3266.7      0.98734    
    3286.7      0.98757    
    3306.7      0.98779    
    3326.7      0.98801    
    3346.7      0.98822    
    3366.6      0.98842    
    3386.6      0.98862    
    3406.6      0.98882    
    3426.6      0.98901    
    3446.6      0.98920    
    3466.5      0.98938    
    3486.5      0.98956    
    3506.5      0.98974    
    3526.5      0.98991    
    3546.5      0.99008    
    3566.4      0.99024    
    3586.4      0.99040    
    3606.4      0.99056    
    3626.4      0.99072    
    3646.4      0.99087    
    3666.3      0.99101    
    3686.3      0.99116    
    3706.3      0.99130    
    3726.3      0.99144    
    3746.3      0.99158    
    3766.2      0.99171    
    3786.2      0.99184    
    3806.2      0.99197    
    3826.2      0.99209    
    3846.2      0.99222    
    3866.1      0.99234    
    3886.1      0.99245    
    3906.1      0.99257    
    3926.1      0.99268    
    3946.1      0.99279    
    3966.0      0.99290    
    3986.0      0.99301    
    4006.0      0.99311    
    4026.0      0.99322    
    4046.0      0.99332    
    4065.9      0.99342    
    4085.9      0.99351    
    4105.9      0.99361    
    4125.9      0.99370    
    4145.9      0.99379    
    4165.8      0.99388    
    4185.8      0.99397    
    4205.8      0.99406    
    4225.8      0.99414    
    4245.8      0.99423    
    4265.7      0.99431    
    4285.7      0.99439    
    4305.7      0.99447    
    4325.7      0.99454    
    4345.7      0.99462    
    4365.6      0.99469    
    4385.6      0.99477    
    4405.6      0.99484    
    4425.6      0.99491    
    4445.6      0.99498    
    4465.5      0.99505    
    4485.5      0.99511    
    4505.5      0.99518    
    4525.5      0.99524    
    4545.5      0.99531    
    4565.4      0.99537    
    4585.4      0.99543    
    4605.4      0.99549    
    4625.4      0.99555    
    4645.4      0.99561    
    4665.3      0.99566    
    4685.3      0.99572    
    4705.3      0.99578    
    4725.3      0.99583    
    4745.3      0.99588    
    4765.2      0.99594    
    4785.2      0.99599    
    4805.2      0.99604    
    4825.2      0.99609    
    4845.2      0.99614    
    4865.1      0.99619    
    4885.1      0.99623    
    4905.1      0.99628    
    4925.1      0.99633    
    4945.1      0.99637    
    4965.0      0.99642    
    4985.0      0.99646    
    5005.0      0.99650    
    5025.0      0.99654    
    5045.0      0.99659    
    5064.9      0.99663    
    5084.9      0.99667    
    5104.9      0.99671    
    5124.9      0.99675    
    5144.9      0.99679    
    5164.8      0.99682    
    5184.8      0.99686    
    5204.8      0.99690    
    5224.8      0.99693    
    5244.8      0.99697    
    5264.7      0.99700    
    5284.7      0.99704    
    5304.7      0.99707    
    5324.7      0.99711    
    5344.7      0.99714    
    5364.6      0.99717    
    5384.6      0.99720    
    5404.6      0.99724    
    5424.6      0.99727    
    5444.6      0.99730    
    5464.5      0.99733    
    5484.5      0.99736    
    5504.5      0.99739    
    5524.5      0.99742    
    5544.5      0.99744    
    5564.4      0.99747    
    5584.4      0.99750    
    5604.4      0.99753    
    5624.4      0.99755    
    5644.4      0.99758    
    5664.3      0.99761    
    5684.3      0.99763    
    5704.3      0.99766    
    5724.3      0.99768    
    5744.3      0.99771    
    5764.2      0.99773    
    5784.2      0.99776    
    5804.2      0.99778    
    5824.2      0.99780    
    5844.2      0.99783    
    5864.1      0.99785    
    5884.1      0.99787    
    5904.1      0.99789    
    5924.1      0.99792    
    5944.1      0.99794    
    5964.0      0.99796    
    5984.0      0.99798    
    6004.0      0.99800    
    6024.0      0.99802    
    6044.0      0.99804    
    6063.9      0.99806    
    6083.9      0.99808    
    6103.9      0.99810    
    6123.9      0.99812    
    6143.9      0.99814    
    6163.8      0.99816    
    6183.8      0.99817    
    6203.8      0.99819    
    6223.8      0.99821    
    6243.8      0.99823    
    6263.7      0.99825    
    6283.7      0.99826    
    6303.7      0.99828    
    6323.7      0.99830    
    6343.7      0.99831    
    6363.6      0.99833    
    6383.6      0.99835    
    6403.6      0.99836    
    6423.6      0.99838    
    6443.6      0.99839    
    6463.5      0.99841    
    6483.5      0.99842    
    6503.5      0.99844    
    6523.5      0.99845    
    6543.5      0.99847    
    6563.4      0.99848    
    6583.4      0.99850    
    6603.4      0.99851    
    6623.4      0.99852    
    6643.4      0.99854    
    6663.3      0.99855    
    6683.3      0.99856    
    6703.3      0.99858    
    6723.3      0.99859    
    6743.3      0.99860    
    6763.2      0.99862    
    6783.2      0.99863    
    6803.2      0.99864    
    6823.2      0.99865    
    6843.2      0.99867    
    6863.1      0.99868    
    6883.1      0.99869    
    6903.1      0.99870    
    6923.1      0.99871    
    6943.1      0.99872    
    6963.0      0.99874    
    6983.0      0.99875    
    7003.0      0.99876    
    7023.0      0.99877    
    7043.0      0.99878    
    7062.9      0.99879    
    7082.9      0.99880    
    7102.9      0.99881    
    7122.9      0.99882    
    7142.9      0.99883    
    7162.8      0.99884    
    7182.8      0.99885    
    7202.8      0.99886    
    7222.8      0.99887    
    7242.8      0.99888    
    7262.7      0.99889    
    7282.7      0.99890    
    7302.7      0.99891    
    7322.7      0.99892    
    7342.7      0.99893    
    7362.6      0.99894    
    7382.6      0.99894    
    7402.6      0.99895    
    7422.6      0.99896    
    7442.6      0.99897    
    7462.5      0.99898    
    7482.5      0.99899    
    7502.5      0.99900    
    7522.5      0.99900    
    7542.5      0.99901    
    7562.4      0.99902    
    7582.4      0.99903    
    7602.4      0.99904    
    7622.4      0.99904    
    7642.4      0.99905    
    7662.3      0.99906    
    7682.3      0.99907    
    7702.3      0.99907    
    7722.3      0.99908    
    7742.3      0.99909    
    7762.2      0.99910    
    7782.2      0.99910    
    7802.2      0.99911    
    7822.2      0.99912    
    7842.2      0.99912    
    7862.1      0.99913    
    7882.1      0.99914    
    7902.1      0.99915    
    7922.1      0.99915    
    7942.1      0.99916    
    7962.0      0.99916    
    7982.0      0.99917    
    8002.0      0.99918    
    8022.0      0.99918    
    8042.0      0.99919    
    8061.9      0.99920    
    8081.9      0.99920    
    8101.9      0.99921    
    8121.9      0.99921    
    8141.9      0.99922    
    8161.8      0.99923    
    8181.8      0.99923    
    8201.8      0.99924    
    8221.8      0.99924    
    8241.8      0.99925    
    8261.7      0.99926    
    8281.7      0.99926    
    8301.7      0.99927    
    8321.7      0.99927    
    8341.7      0.99928    
    8361.6      0.99928    
    8381.6      0.99929    
    8401.6      0.99929    
    8421.6      0.99930    
    8441.6      0.99930    
    8461.5      0.99931    
    8481.5      0.99931    
    8501.5      0.99932    
    8521.5      0.99932    
    8541.5      0.99933    
    8561.4      0.99933    
    8581.4      0.99934    
    8601.4      0.99934    
    8621.4      0.99935    
    8641.4      0.99935    
    8661.3      0.99936    
    8681.3      0.99936    
    8701.3      0.99937    
    8721.3      0.99937    
    8741.3      0.99937    
    8761.2      0.99938    
    8781.2      0.99938    
    8801.2      0.99939    
    8821.2      0.99939    
    8841.2      0.99940    
    8861.1      0.99940    
    8881.1      0.99940    
    8901.1      0.99941    
    8921.1      0.99941    
    8941.1      0.99942    
    8961.0      0.99942    
    8981.0      0.99942    
    9001.0      0.99943    
    9021.0      0.99943    
    9041.0      0.99944    
    9060.9      0.99944    
    9080.9      0.99944    
    9100.9      0.99945    
    9120.9      0.99945    
    9140.9      0.99946    
    9160.8      0.99946    
    9180.8      0.99946    
    9200.8      0.99947    
    9220.8      0.99947    
    9240.8      0.99947    
    9260.7      0.99948    
    9280.7      0.99948    
    9300.7      0.99948    
    9320.7      0.99949    
    9340.7      0.99949    
    9360.6      0.99949    
    9380.6      0.99950    
    9400.6      0.99950    
    9420.6      0.99950    
    9440.6      0.99951    
    9460.5      0.99951    
    9480.5      0.99951    
    9500.5      0.99952    
    9520.5      0.99952    
    9540.5      0.99952    
    9560.4      0.99953    
    9580.4      0.99953    
    9600.4      0.99953    
    9620.4      0.99953    
    9640.4      0.99954    
    9660.3      0.99954    
    9680.3      0.99954    
    9700.3      0.99955    
    9720.3      0.99955    
    9740.3      0.99955    
    9760.2      0.99955    
    9780.2      0.99956    
    9800.2      0.99956    
    9820.2      0.99956    
    9840.2      0.99957    
    9860.1      0.99957    
    9880.1      0.99957    
    9900.1      0.99957    
    9920.1      0.99958    
    9940.1      0.99958    
    9960.0      0.99958    
    9980.0      0.99958    
    10000.      0.99959    
